t(min)   Tvap(°C)   TckIn(°C)   TckSld(°C)   TckOut(°C)   Mvap(t/h)   Nivel(m)   TspIn(°C)   TspSld(°C)
0   355.069   370.1   370.1   370.1   3   0   370.1   370.1   
5   351.805   368.786   369.797   370.068   3   0   346.898   360.754   
10   351.687   366.811   369.497   370.029   3   0   345.319   360.446   
15   351.572   364.901   369.194   369.99   3   0   343.688   360.144   
20   351.457   363.001   368.891   369.95   3   0   342.065   359.843   
25   351.343   361.135   368.587   369.911   3   0   340.47   359.542   
30   351.228   359.289   368.284   369.871   3   0   338.892   359.241   
35   351.114   357.464   367.981   369.83   3   0   337.332   358.94   
40   350.999   355.66   367.677   369.79   3   0   335.79   358.639   
45   350.884   353.876   367.374   369.749   3   0   334.264   358.338   
50   350.769   352.102   367.071   369.709   3   0   332.743   358.037   
55   350.655   350.358   366.767   369.667   3   0   331.252   357.738   
60   350.54   348.635   366.464   369.626   3   0   329.776   357.438   
65   350.426   346.93   366.16   369.585   3   0   328.316   357.138   
70   350.311   345.245   365.857   369.543   3   0   326.872   356.838   
75   304.619   343.911   365.575   369.504   8   0   315.844   351.959   
80   304.171   341.664   364.209   369.322   8   0   314.218   350.972   
85   303.861   339.143   362.857   369.132   8   0   312.218   349.745   
90   303.556   336.661   361.391   368.942   8   0   310.248   348.435   
95   303.255   334.217   360.061   368.751   8   0   308.308   347.218   
100   302.954   331.8   358.694   368.56   8   0   306.386   345.992   
105   302.654   329.431   357.332   368.368   8   0   304.503   344.747   
110   302.355   327.099   355.927   368.176   8   0   302.648   343.508   
115   302.057   324.804   354.529   367.983   8   0   300.822   342.234   
120   301.761   322.544   353.19   367.79   8   0   299.022   340.987   
125   301.465   320.319   351.833   367.596   8   0   297.25   339.782   
130   301.17   318.129   350.757   367.402   8   0   295.505   338.555   
135   366.752   315.973   349.743   367.222   0.185948   0.37196   61.0336   349.298   
140   367.116   304.838   349.743   367.222   0.0912852   2.07562   72.6964   349.719   
145   367.076   289.408   349.743   367.222   0.114621   2.70527   71.6444   349.73   
150   367.156   275.003   349.743   367.222   0.0718111   3.16249   70.6423   349.739   
155   367.156   261.536   349.743   367.222   0.0718654   3.54276   69.6897   349.738   
160   367.075   248.94   349.743   367.222   0.114785   3.87304   68.784   349.712   
165   367.075   237.156   349.743   367.222   0.114811   4.15072   67.9226   349.698   
170   367.122   226.129   349.743   367.222   0.0879613   4.41825   67.1031   349.633   
175   367.075   215.803   349.743   367.222   0.114923   4.64876   66.3237   349.627   
180   367.046   206.114   349.742   367.222   0.130566   4.88287   65.566   349.436   
185   367.046   197.064   349.738   367.222   0.130602   5.10971   64.8572   349.226   
190   367.137   188.57   349.731   367.222   0.0819394   5.32162   64.1858   349.467   
195   367.046   180.607   349.713   367.222   0.13068   5.52152   63.5466   347.76   
200   367.136   173.138   349.662   367.222   0.0820217   5.71036   62.938   347.301   
205   367.136   166.131   349.6   367.222   0.0820672   5.88974   62.3585   336.879   
210   367.106   159.245   349.492   367.222   0.0983878   6.08763   61.7529   120.693   
215   366.998   153.101   345.454   367.222   0.156878   6.28218   61.2222   119.4   
220   366.998   147.316   318.289   367.222   0.15693   6.46751   60.7232   86.9321   
225   366.998   141.883   305.346   367.222   0.156991   6.64651   60.2474   85.3977   
230   367   136.777   293.054   367.222   0.157054   6.82573   59.7941   83.9312   
235   366.931   131.977   281.383   367.222   0.196921   6.99384   59.3621   82.5292   
240   367.105   127.464   270.298   367.222   0.0986109   7.1732   58.9504   81.1885   
245   367.105   123.218   259.77   367.222   0.0986641   7.35261   58.5579   79.9065   
250   366.997   119.224   249.769   367.222   0.157156   7.53206   58.1838   78.6804   
255   366.997   115.464   240.268   367.222   0.157207   7.71153   57.8271   77.5075   
260   367.105   111.925   231.242   367.222   0.0988175   7.89112   57.4869   76.3853   
265   367.101   108.592   222.665   367.222   0.0988665   8.07083   57.1624   75.3117   
270   366.996   105.452   214.515   367.222   0.157355   8.25063   56.8529   74.2843   
275   366.998   102.493   206.769   367.222   0.157405   8.43036   56.5576   73.301   
280   366.922   99.7048   199.406   367.222   0.197591   8.59893   56.2759   72.3598   
285   366.996   97.0761   192.407   367.222   0.157376   8.77879   56.007   71.459   
290   367.105   94.5971   185.753   367.222   0.0989795   8.95882   55.7504   70.5965   
295   367.105   92.2587   179.426   367.222   0.099022   9.13889   55.5054   69.7706   
300   366.994   90.0526   173.409   367.222   0.157504   9.31898   55.2715   68.9799   
305   366.841   87.9703   167.687   367.222   0.228038   9.49906   55.0482   68.2226   
310   366.817   86.1984   161.132   367.222   0.2278   9.7591   54.7335   65.7674   
315   366.803   84.328   155.714   367.222   0.227955   10.0355   54.5287   65.1206   
320   366.767   82.5603   150.572   367.222   0.227978   10.2959   54.3334   64.5033   
325   366.74   80.8903   145.695   367.222   0.228004   10.5563   54.1469   63.9129   
330   366.696   79.3123   141.071   367.222   0.228154   10.8332   53.9687   63.3478   
335   366.615   77.8207   136.683   367.222   0.228168   11.0939   53.7985   62.8073   
340   366.548   76.4105   132.52   367.222   0.228188   11.3546   53.6358   62.2901   
345   366.657   75.0771   128.57   367.222   0.185793   11.6318   53.4804   61.7949   
350   366.218   73.8158   124.821   367.222   0.22834   11.8928   53.3318   61.3212   
355   366.037   72.6225   121.262   367.221   0.228353   12.1538   53.1898   60.8677   
360   366.146   71.4932   117.883   367.22   0.185604   12.4313   53.0541   60.4335   
365   365.084   70.4244   114.675   367.219   0.228495   12.6925   52.9243   60.0179   
370   364.52   69.4124   111.628   367.215   0.228502   12.9538   52.8002   59.6198   
375   364.094   68.4541   108.733   367.214   0.184696   13.2316   52.6815   59.2386   
380   361.141   67.5465   105.983   367.208   0.228636   13.4931   52.568   58.8736   
385   324.895   66.6865   103.37   367.191   0.593822   13.7547   52.4595   58.524   
390   258.877   65.8684   101.039   367.183   0.593088   14.5574   51.699   57.164   
395   143.179   65.0268   98.4747   360.581   0   15.3449   51.6116   56.8701   
400   143.179   64.2307   96.0483   345.826   0.395112   15.7425   51.5287   56.5894   
405   143.179   63.4775   93.7525   330.791   0.395112   16.1401   51.4501   56.3209   
410   143.179   62.7649   91.5794   316.566   0.395112   16.5377   51.3754   56.0642   
415   143.179   62.0906   89.5223   303.106   0.395112   16.9353   51.3046   55.8188   
420   143.179   61.4525   87.5746   290.369   0.395112   17.3329   51.2374   55.584   
425   143.179   60.8485   85.7299   278.313   0.395112   17.7305   51.1736   55.3594   
430   143.179   60.2768   83.9825   266.899   0.395112   18.1281   51.1131   55.1446   
435   143.179   59.7357   82.327   256.092   0.395112   18.5257   51.0557   54.939   
440   143.179   59.2235   80.758   245.857   0.395112   18.9233   51.0013   54.7423   
445   143.179   58.7385   79.2709   236.163   0.395112   19.3209   50.9496   54.5541   
450   143.179   58.2794   77.861   226.979   0.395112   19.7185   50.9006   54.3739   
455   143.179   57.8446   76.5241   218.277   0.395112   20.1161   50.8541   54.2014   
460   143.179   57.7604   76.2647   216.592   0.000174058   20.1957   51.9022   -16182.2   
465   143.179   57.2992   76.2553   144.43   0.000174058   20.1958   51.8083   -28700   
470   143.179   57.0453   76.2553   144.43   0.000174058   20.196   51.7537   64.8506   
475   143.179   56.8006   76.2553   26.7903   0.000174058   20.1962   51.7009   63.8239   
480   143.179   56.5648   76.2553   -76.8958   0.000174058   20.1964   51.6497   63.458   
485   143.179   56.3376   76.2553   -291.341   0.000174058   20.1965   51.6002   63.0672   
490   143.179   56.1187   76.2553   -291.344   0.000174058   20.1967   51.5522   62.6877   
495   143.179   55.9076   76.2553   -291.344   0.000174058   20.1969   51.5058   62.3219   
500   143.179   55.7043   76.2553   -645.979   0.000174058   20.1971   51.4608   61.9725   

Função objetivo mínima: 1018.58
Parâmetros otimizados:
Dp = 4.05851
mhc = 2.4458
mhl = 3.35247
mhe = 1.75639
Numero de iterações = 20
Numero de particulas = 100

Pico de vazao de vapor [t/h] = 8
Agua total adicionada [kg] = 538934
Vapor total gerado [kg] = 177.569
Agua acumulada no leito [kg] = 572221
balanco [kg] = -33463.7
errobalanco [%] = -6.20923

Tempo: 90434 s
