t(min)   Tvap(°C)   TckIn(°C)   TckSld(°C)   TckOut(°C)   Mvap(t/h)   Nivel(m)   TspIn(°C)   TspSld(°C)
0   418.443   420.2   420.2   420.2   3   0   420.2   420.2   
5   418.354   412.382   419.388   420.191   3   0   412.382   419.092   
10   418.3   404.877   418.672   420.182   3   0   404.877   418.45   
15   418.247   397.671   418.117   420.174   3   0   397.671   417.823   
20   418.2   390.749   417.549   420.166   3   0   390.749   417.308   
25   418.151   384.099   417.065   420.158   3   0   384.099   416.772   
30   418.105   377.707   416.557   420.149   3   0   377.707   416.304   
35   418.059   371.561   416.104   420.141   3   0   371.561   415.812   
40   418.014   365.652   415.627   420.132   3   0   365.652   415.367   
45   417.968   359.967   415.191   420.123   3   0   359.967   414.9   
50   407.872   354.497   414.733   420.114   8   0   354.497   414.468   
55   407.319   345.553   412.926   420.006   8   0   345.553   412.3   
60   406.974   337.174   411.372   419.913   8   0   337.174   410.912   
65   406.636   329.318   410.178   419.828   8   0   329.318   409.564   
70   406.336   321.949   408.958   419.741   8   0   321.949   408.463   
75   406.029   315.032   407.927   419.653   8   0   315.032   407.321   
80   405.741   308.536   406.848   419.565   8   0   308.536   406.335   
85   405.448   302.433   405.898   419.473   8   0   302.433   405.3   
90   405.165   296.695   404.9   419.382   8   0   296.695   404.376   
95   404.877   291.299   403.998   419.288   8   0   291.299   403.406   
100   404.596   286.223   403.052   419.194   8   0   286.223   402.521   
105   404.312   281.444   402.18   419.098   8   0   281.444   401.595   
110   404.032   276.945   401.27   419.002   8   0   276.945   400.733   
115   403.751   272.707   400.417   418.903   8   0   272.707   399.837   
120   403.472   268.714   399.531   418.804   8   0   268.714   398.991   
125   403.192   264.951   398.691   418.704   8   0   264.951   398.116   
130   402.914   261.402   397.823   418.603   8   0   261.402   397.282   
135   402.634   258.056   396.992   418.5   8   0   258.056   396.422   
140   418.327   254.899   396.137   418.397   0.0217842   0   254.899   395.596   
145   418.366   211.932   396.136   418.397   0.0397322   0.845317   199.271   396.133   
150   418.366   166.343   396.133   418.397   0.0398448   1.34512   157.597   396.13   
155   418.365   133.64   396.133   418.397   0.0399761   1.74328   127.567   396.13   
160   418.365   109.868   396.133   418.397   0.0401411   2.07709   105.648   396.129   
165   418.365   92.4796   396.133   418.397   0.0402179   2.35317   89.5573   396.128   
170   418.365   79.9034   396.132   418.397   0.0404645   2.61715   77.886   396.125   
175   418.364   71.1536   396.132   418.397   0.0405482   2.84244   69.7472   396.124   
180   418.364   65.0289   396.132   418.397   0.0406385   3.05114   64.0402   396.12   
185   418.364   60.711   396.132   418.397   0.0407376   3.24665   60.0118   396.115   
190   418.364   57.651   396.129   418.397   0.0408452   3.43027   57.1544   396.108   
195   418.347   55.4741   396.097   418.397   0.0518814   3.59299   55.1203   396.074   
200   418.345   53.9212   396.053   418.397   0.0530487   3.75672   53.6685   396.022   
205   418.345   53.5371   395.978   418.397   0.0531429   3.9584   53.2948   395.92   
210   418.345   53.186   395.876   418.397   0.0532671   4.1485   52.9756   395.798   
215   418.345   52.8781   395.842   418.397   0.0533962   4.3287   52.6836   395.219   
220   418.345   52.5975   391.963   418.397   0.0535384   4.50036   52.4245   384.537   
225   367.956   52.3466   374.644   418.397   14.8154   4.64585   52.1889   370.359   
230   417.867   52.119   355.643   418.397   0.0535546   4.72858   51.9775   348.262   
235   376.66   51.9143   341.032   418.397   11.5868   4.83393   51.786   335.287   
240   417.859   51.729   330.215   418.397   0.0535872   4.91082   51.6135   323.649   
245   355.558   51.562   319.853   418.397   19.8   5.00023   51.4575   314.122   
250   417.85   51.411   310.796   418.397   0.0536259   5.08229   51.3167   304.793   
255   353.368   51.2747   301.856   418.397   19.8   5.16188   51.1895   296.341   
260   417.909   51.1516   293.557   418.397   0.0536744   5.2574   51.0747   288.002   
265   352.21   51.0404   285.389   418.397   19.8   5.33709   50.9709   280.155   
270   418.217   50.9399   277.631   418.396   0.0537355   5.42297   50.8772   272.461   
275   351.024   50.8492   270.045   418.396   19.8   5.51004   50.7925   265.109   
280   417.833   50.7673   262.764   418.396   0.0535045   5.57965   50.716   257.93   
285   349.813   50.6932   255.667   418.396   19.8   5.66779   50.6469   251.015   
290   417.824   50.6263   248.82   418.396   0.0535609   5.73752   50.5845   244.283   
295   377.883   50.5659   242.156   418.396   9.87467   5.817   50.5282   237.769   
300   417.815   50.5114   235.703   418.396   0.0536231   5.89615   50.4773   231.436   
305   418.29   50.4564   228.56   418.396   0.0940949   6.02515   50.4128   222.235   
310   418.29   50.3745   217.061   418.396   0.0942053   6.30358   50.3444   211.938   
315   418.26   50.3238   208.715   418.396   0.120388   6.58313   50.2941   203.309   
320   417.632   50.2806   200.759   418.396   0.0948735   6.87073   50.2563   195.853   
325   357.56   50.245   193.479   418.396   13.6695   7.03317   50.2231   188.698   
330   417.226   50.2137   186.504   418.396   0.0946998   7.17888   50.1949   182.023   
335   311.803   50.1866   179.931   418.396   35   7.36038   50.17   175.654   
340   417.197   50.1629   173.679   418.396   0.0948409   7.52458   50.1485   169.625   
345   314.995   50.1423   167.746   418.396   30.7272   7.67948   50.1297   163.9   
350   417.197   50.1242   162.117   418.395   0.0943286   7.80492   50.1132   158.46   
355   307.182   50.1085   156.767   418.395   35   7.96497   50.0989   153.301   
360   417.152   50.0947   151.693   418.395   0.0948152   8.13468   50.0863   148.396   
365   304.622   50.0827   146.869   418.395   34.5285   8.29424   50.0754   143.742   
370   417.807   50.0723   142.291   418.395   0.0949798   8.42819   50.0659   139.316   
375   302.334   50.0632   137.938   418.395   35   8.57974   50.0576   135.115   
380   417.106   50.0552   133.805   418.395   0.094819   8.74285   50.0503   131.119   
385   417.494   50.0483   129.874   418.392   0.0949079   8.90725   50.044   127.323   
390   300.722   50.0422   126.139   418.392   32.5238   9.10236   50.0385   123.712   
395   417.664   50.0369   122.587   418.391   0.0949806   9.23599   50.0336   120.281   
400   295.495   50.0322   119.21   418.391   35   9.38484   50.0294   117.015   
405   417.038   50.0282   115.997   418.391   0.094828   9.52791   50.0257   113.91   
410   296.571   50.0247   112.941   418.391   31.705   9.68167   50.0225   110.955   
415   417.037   50.0211   110.033   418.391   0.0943396   9.80664   50.0191   108.143   
420   290.088   50.013   107.265   418.391   35   9.96543   50.0124   105.466   
425   416.987   50.0115   104.631   418.391   0.0948582   10.1091   50.0104   102.918   
430   418.161   50.0081   98.9454   418.391   0.201262   10.7008   50.0069   97.0374   
435   418.043   50.0081   94.7502   418.391   0.258608   11.374   50.0069   92.5225   
440   241.877   50.0081   91.1614   418.39   70.8003   11.8296   50.0069   89.3417   
445   416.1   50.0081   88.2721   418.39   0.202696   12.1451   50.0069   86.4311   
450   258.745   50.0081   85.5592   418.39   39.3527   12.4818   50.0069   83.9386   
455   414.056   49.0903   82.1661   418.39   0.6524   13.3798   49.0903   79.0217   
460   390.962   46.8462   75.301   417.045   0.583451   16.079   46.8462   73.2688   
465   170.064   46.4092   71.5796   417.033   215   17.3649   46.3188   69.4809   
470   174.385   46.2826   68.4734   417.003   37.7538   18.711   46.2242   66.7601   
475   150.745   46.202   65.9365   416.977   62.6343   20.3972   46.1594   64.355   
480   143.179   46.1441   63.6686   171.424   0.374225   21.4144   46.1139   62.3006   
485   143.179   46.1029   61.6918   166.653   0.374225   22.0176   46.0813   60.465   
490   143.179   46.0734   59.931   161.392   0.374225   22.6208   46.058   58.8511   
495   143.179   46.0524   58.3763   155.898   0.1   23.224   46.0414   57.4154   
500   143.179   46.0524   58.3602   155.898   0.000174058   23.2237   46.0521   58.3542   

Função objetivo mínima: 1226.39
Parâmetros otimizados:
Dp = 0.1
mhc = 0.0337305
mhl = 0
mhe = 5
Numero de iterações = 30
Numero de particulas = 100

Pico de vazao de vapor [t/h] = 215
Agua total adicionada [kg] = 302495
Vapor total gerado [kg] = 83343
Agua acumulada no leito [kg] = 295382
balanco [kg] = -76230.1
errobalanco [%] = -25.2005

Tempo: 18013 s
