t(min)   Tvap(°C)   TckIn(°C)   TckSld(°C)   TckOut(°C)   Mvap(t/h)   Nivel(m)   TspIn(°C)   TspSld(°C)
0   391.415   433.4   433.4   433.4   3   0   433.4   433.4   
5   388.913   431.685   433.111   433.363   3   0   417.061   426.326   
10   388.801   430.003   432.84   433.321   3   0   415.499   426.036   
15   388.699   428.333   432.564   433.279   3   0   413.949   425.781   
20   388.6   426.674   432.312   433.237   3   0   412.409   425.521   
25   388.502   425.027   432.054   433.194   3   0   410.879   425.277   
30   306.583   423.335   431.808   433.152   10   0   409.358   425.028   
35   304.677   420.542   431.037   432.898   10   0   394.486   422.672   
40   304.477   417.836   430.265   432.714   10   0   392.135   421.932   
45   304.292   415.16   429.531   432.538   10   0   389.809   421.229   
50   304.114   412.514   428.762   432.374   10   0   387.507   420.598   
55   303.941   409.898   428.188   432.208   10   0   385.23   420.051   
60   303.772   407.31   427.606   432.045   10   0   382.977   419.492   
65   303.605   404.75   427.023   431.88   10   0   380.749   418.933   
70   303.438   402.219   426.436   431.716   10   0   378.544   418.374   
75   303.271   399.696   425.864   431.552   10   0   376.344   417.82   
80   303.105   397.221   425.295   431.388   10   0   374.187   417.274   
85   302.941   394.774   424.718   431.224   10   0   372.053   416.723   
90   302.779   392.353   424.134   431.06   10   0   369.943   416.165   
95   302.618   389.96   423.54   430.896   10   0   367.855   415.596   
100   302.458   387.593   422.945   430.732   10   0   365.789   415.028   
105   302.299   385.252   422.35   430.567   10   0   363.746   414.456   
110   302.139   382.937   421.755   430.403   10   0   361.725   413.885   
115   301.979   380.648   421.157   430.239   10   0   359.726   413.311   
120   301.82   378.364   420.564   430.075   10   0   357.73   412.743   
125   301.66   376.126   419.988   429.911   10   0   355.774   412.187   
130   301.502   373.913   419.415   429.747   10   0   353.84   411.636   
135   240.242   372.625   419.187   429.681   12.7627   0.582824   112.598   155.632   
140   286.335   356.215   419.116   429.681   6.88469   1.17571   110.205   160.174   
145   246.262   340.303   415.813   429.673   10.0283   1.55955   107.844   156.536   
150   213.304   327.829   412.289   429.673   17.1368   1.83461   105.959   275.466   
155   404.527   313.924   412.289   429.673   1.46521   2.08532   104.231   153.019   
160   240.394   302.872   412.289   429.673   10.9893   2.35383   102.428   162.361   
165   251.233   291.554   412.289   429.673   9.06792   2.56146   100.41   138.574   
170   208.827   281.415   412.274   429.673   17.0528   2.729   98.8857   158.215   
175   289.74   271.845   411.667   429.673   5.76816   2.92569   97.3526   155.116   
180   232.062   261.776   411.667   429.673   11.1156   3.11218   95.7517   124.38   
185   229.957   251.672   411.667   429.673   11.3678   3.26641   94.0663   164.49   
190   203.569   241.664   411.667   429.673   17.9481   3.40303   92.6378   138.786   
195   205.169   233.883   411.663   429.67   16.8625   3.50973   91.2673   162.227   
200   194.383   224.637   411.619   429.647   21.7718   3.60803   89.6739   144.895   
205   199.35   216.98   411.49   429.646   19.1847   3.68364   88.1381   161.316   
210   191.783   210.184   406.919   429.646   23.4611   3.75758   86.9732   163.229   
215   197.227   203.496   406.138   429.646   19.6811   3.82128   85.7939   162.708   
220   187.706   197.294   405.068   429.645   25.9154   3.87364   84.6764   161.889   
225   189.083   191.336   403.237   429.645   23.5387   3.92371   83.5911   160.725   
230   185.713   185.666   400.391   429.645   25.6665   3.9773   82.5438   159.517   
235   419.793   180.156   398.44   429.605   0.756938   4.10925   81.519   155.382   
240   207.482   174.963   398.44   429.605   16.0245   4.26736   80.5342   169.803   
245   381.253   169.474   398.44   429.605   1.52413   4.39117   79.499   123.358   
250   199.611   164.098   398.44   429.605   18.32   4.50677   78.57   169.144   
255   414.905   159.179   398.437   429.605   3.80475   4.61247   77.4556   128.628   
260   189.11   154.833   398.425   429.605   22.1215   4.71064   76.6175   169.254   
265   291.866   150.286   398.397   429.605   4.44429   4.80192   75.7209   132.004   
270   181.164   145.893   397.819   429.605   30.1627   4.92202   74.7229   169.135   
275   252.673   142.072   396.408   429.605   6.98604   5.04006   73.9345   132.264   
280   180.628   137.466   381.837   429.605   29.7796   5.16443   72.9768   129.558   
285   238.356   133.862   368.06   429.605   8.26142   5.27792   72.2261   126.932   
290   180.591   130.573   354.909   429.605   28.8108   5.39727   71.5267   124.406   
295   241.369   127.358   342.36   429.605   7.77489   5.5107   70.8394   121.973   
300   408.058   124.337   330.384   429.605   0.990734   5.67342   70.1832   119.629   
305   329.82   121.35   318.951   429.605   2.94014   5.88027   69.532   117.371   
310   216.735   118.558   308.038   429.605   10.7032   6.06485   68.912   115.195   
315   213.031   115.67   297.618   429.605   11.0403   6.23072   68.2721   113.097   
320   200.647   112.627   287.664   429.605   14.1112   6.38489   67.6747   111.075   
325   241.236   110.163   278.16   429.605   6.98649   6.53648   67.1189   109.124   
330   195.667   107.844   269.077   429.605   15.0065   6.69481   66.5729   107.244   
335   285.771   105.578   260.401   429.605   4.11279   6.87385   66.0517   105.429   
340   265.244   103.441   252.107   429.605   4.84926   7.068   65.5403   103.679   
345   202.558   101.352   244.179   429.54   11.8525   7.24504   65.051   101.99   
350   428.946   99.3867   236.598   429.539   0.16783   7.41444   64.57   100.361   
355   209.169   97.4627   229.349   429.539   9.88787   7.6143   64.1112   98.7882   
360   233.346   95.65   222.415   429.539   6.67401   7.78791   63.6611   97.27   
365   188.214   93.8825   215.782   429.539   15.1401   7.94866   63.2303   95.8044   
370   218.681   92.2084   209.436   429.539   7.90832   8.13599   62.809   94.3889   
375   206.05   90.5859   203.361   429.539   9.50098   8.30789   62.4044   93.0222   
380   195.127   89.0385   197.546   429.539   11.5064   8.46587   62.0103   91.7021   
385   178.788   87.5462   191.979   429.539   17.4305   8.61042   61.6299   90.4267   
390   178.536   86.1164   186.647   429.49   17.559   8.73887   61.261   89.1953   
395   179.708   84.8894   182.307   429.484   15.1173   9.08667   59.1707   83.931   
400   161.055   83.5432   177.164   429.484   35.4928   9.72716   58.8428   82.881   
405   159.353   82.2505   172.207   429.484   33.2467   10.2349   58.5275   81.8755   
410   426.73   81.0108   166.819   429.484   0.194013   10.8406   58.2236   80.8962   
415   163.753   79.8219   162.219   429.483   24.2482   11.4245   57.9306   79.8073   
420   247.096   78.6814   158.03   429.476   3.72677   11.9443   57.6481   78.9312   
425   428.236   77.5871   153.958   429.476   0.149382   12.4381   57.3758   78.0579   
430   172.766   76.5369   150.096   429.476   15.297   12.8607   57.1133   77.2317   
435   428.781   75.529   146.363   429.476   0.122082   13.2549   56.8602   76.4186   
440   170.802   74.5617   142.797   429.476   16.8335   13.6249   56.6161   75.6387   
445   429.107   73.6329   139.364   429.476   0.0977619   13.9307   56.3808   74.8782   
450   429.271   72.741   136.075   429.476   0.078696   14.2349   56.1539   74.1446   
455   429.336   71.8846   132.911   429.476   0.0678113   14.4848   55.9351   73.4309   
460   429.389   71.0621   129.874   429.476   0.0556394   14.6917   55.7242   72.7403   
465   429.432   70.2721   126.957   429.476   0.0415754   14.8583   55.5208   72.0715   
470   429.412   69.513   124.153   429.476   0.0486703   14.9967   55.3247   71.422   
475   424.656   68.7836   121.46   429.475   0.21075   15.6616   55.1355   70.7929   
480   399.314   68.0828   118.872   429.475   0.2112   16.3642   54.9532   70.1835   
485   416.597   67.4093   116.385   429.475   0.211868   17.0686   54.7773   69.5925   
490   97.7823   66.7619   113.993   429.473   0.21229   17.7748   54.6077   69.0189   
495   378.062   66.1396   111.695   429.46   0.212938   18.4829   54.4442   68.4638   
500   104.781   65.5415   109.486   429.415   0.207065   19.1927   54.2864   67.9255   
505   143.179   64.9663   107.361   426.324   0   19.7577   54.1343   67.4028   
514   143.179   63.986   103.74   403.22   0.221054   20.248   53.8741   66.503   


Pico de vazao de vapor [t/h] = 57.1811
Agua total adicionada [kg] = 409233
Vapor total gerado [kg] = 65124
Agua acumulada no leito [kg] = 284165
balanco [kg] = 59944.3
errobalanco [%] = 14.6479

Tempo: 464 s
