t(min)   Tvap(°C)   TckIn(°C)   TckSld(°C)   TckOut(°C)   Mvap(t/h)   Nivel(m)   TspIn(°C)   TspSld(°C)
0   425.463   444.1   444.1   444.1   3   0   444.1   444.1   
5   423.996   442.229   443.631   444.084   3   0   423.709   437.603   
10   423.932   440.073   443.323   444.066   3   0   421.738   437.255   
15   423.871   437.934   443.053   444.048   3   0   419.783   437.004   
20   423.811   435.779   442.819   444.03   3   0   417.81   436.761   
25   423.752   433.676   442.583   444.012   3   0   415.888   436.532   
30   357.14   431.592   442.352   443.994   10   0   413.982   436.302   
35   354.445   428.603   442.008   443.85   10   0   396.036   433.401   
40   354.246   425.209   441.651   443.725   10   0   393.174   433.069   
45   354.06   421.86   441.317   443.6   10   0   390.348   432.733   
50   353.876   418.555   440.977   443.474   10   0   387.559   432.41   
55   353.694   415.276   440.647   443.348   10   0   384.788   432.084   
60   353.514   412.058   440.312   443.222   10   0   382.07   431.762   
65   353.334   408.884   439.982   443.096   10   0   379.387   431.436   
70   353.155   405.751   439.649   442.97   10   0   376.738   431.116   
75   352.977   402.66   439.319   442.844   10   0   374.123   430.793   
80   352.801   399.61   438.988   442.718   10   0   371.542   430.474   
85   352.627   396.6   438.659   442.591   10   0   368.994   430.153   
90   352.452   393.611   438.329   442.465   10   0   366.46   429.834   
95   352.279   390.684   438   442.339   10   0   363.98   429.515   
100   352.105   387.793   437.671   442.212   10   0   361.53   429.197   
105   351.932   384.941   437.343   442.085   10   0   359.111   428.879   
110   351.759   382.128   437.015   441.959   10   0   356.724   428.561   
115   351.587   379.351   436.688   441.832   10   0   354.367   428.244   
120   351.415   376.612   436.361   441.705   10   0   352.042   427.927   
125   351.243   373.91   436.034   441.578   10   0   349.746   427.61   
130   351.072   371.225   435.708   441.451   10   0   347.462   427.294   
135   347.936   365.326   434.064   441.4   4.22862   8.08535   111.099   284.522   
140   226.412   350.055   407.862   441.4   30   8.00568   108.643   181.232   
145   325.193   333.278   397.857   441.4   5.20874   7.98386   106.138   177.374   
150   302.164   320.503   388.071   441.395   6.09278   8.60175   104.277   173.646   
155   344.988   305.635   378.519   441.395   4.21711   8.70344   102.394   170.034   
160   216.768   293.769   369.173   441.387   30   9.2097   100.191   166.55   
165   286.068   282.849   359.974   441.387   6.7356   9.20244   98.4943   163.219   
170   214.504   272.426   350.847   441.371   30   9.64205   96.8471   160.085   
175   311.68   262.545   341.935   441.371   5.03732   9.77004   95.2752   157.07   
180   262.077   252.959   333.267   441.371   7.70879   10.2096   93.7009   154.156   
185   303.64   243.893   324.813   441.371   5.25806   10.2863   92.255   151.354   
190   259.938   233.739   316.605   441.371   7.66228   10.5619   90.7576   148.643   
195   294.904   225.047   308.68   441.371   5.29523   10.5048   89.0868   145.999   
200   258.057   215.421   301.192   441.371   7.58626   10.7936   87.3884   143.333   
205   277.314   208.057   293.914   441.371   5.6041   10.8536   86.1453   140.746   
210   237.768   200.881   286.979   441.371   8.27799   11.2021   84.8835   138.163   
215   275.27   193.203   280.312   441.371   5.73018   11.307   83.6692   135.605   
220   202.729   186.655   273.785   441.37   30   11.5144   82.5348   133.136   
225   264.015   180.525   267.407   441.37   6.07828   11.7276   81.1457   130.748   
230   198.631   174.902   261.191   441.37   30   12.0273   80.1024   128.433   
235   253.9   169.441   255.126   441.37   6.33053   12.1124   79.059   126.19   
240   216.61   164.315   249.22   441.369   9.19992   12.4021   78.0944   124.015   
245   253.931   159.034   243.481   441.369   6.02273   12.3359   77.0356   121.899   
250   193.19   154.436   237.882   441.366   30   12.8202   76.1785   119.852   
255   217.3   148.837   232.444   441.366   9.08233   12.7859   75.2465   117.86   
260   209.516   144.214   227.137   441.362   9.40274   13.1907   74.2156   115.936   
265   191.238   139.593   221.97   441.362   30   13.1923   73.3485   114.072   
270   180.28   135.806   217.517   441.362   40   13.8463   72.1986   106.633   
275   242.867   131.827   211.99   441.362   8.46963   13.7999   71.3421   104.945   
280   194.427   127.593   206.664   441.362   9.28447   14.1572   70.5747   103.308   
285   200.901   123.952   201.518   441.362   7.1166   14.5737   69.6979   101.724   
290   174.207   120.651   196.547   441.362   40   14.8353   68.9851   100.191   
295   170.955   117.601   191.743   441.362   40   15.3866   68.3124   98.708   
300   167.233   113.997   187.102   441.294   40   15.9944   67.6276   97.2722   
305   163.67   111.279   182.619   441.289   40   16.4803   67.0043   95.8826   
310   189.18   108.637   178.289   441.289   8.50486   16.5708   66.4098   94.5372   
315   162.347   106.149   174.106   441.207   40   16.6201   65.8287   93.2346   
320   176.949   103.738   170.066   441.119   11.9661   17.1614   65.2733   91.9735   
325   156.688   101.458   166.164   441.048   40   17.6141   64.7317   90.7523   
330   191.663   99.258   162.395   441.048   8.0018   17.3865   64.2122   89.5695   
335   159.147   97.1677   158.754   440.973   40   17.2869   63.7079   88.4241   
340   175.92   95.1575   155.238   440.94   11.1769   17.478   63.2223   87.3146   
345   156.688   93.2394   151.842   440.915   40   17.6077   62.752   86.24   
350   194.048   91.402   148.562   440.915   7.56284   17.3561   62.2983   85.1988   
355   181.239   89.6434   145.394   440.894   10.2656   17.229   61.8595   84.19   
360   159.111   87.961   142.334   440.789   40   17.2999   61.4356   83.2127   
365   174.812   86.3488   139.379   440.761   10.41   17.6234   61.0261   82.2656   
370   200.286   84.8073   136.524   440.761   6.59055   17.31   60.63   81.348   
375   184.868   83.3292   133.766   440.761   9.21663   17.2276   60.248   80.4585   
380   181.045   81.9159   131.102   440.747   9.38347   17.4022   59.8782   79.5964   
385   156.661   80.5607   128.529   440.723   40   17.6327   59.5216   78.7609   
390   194.007   79.2638   126.043   440.722   6.37689   17.6735   59.1765   77.9509   
395   143.179   78.1087   123.717   440.122   3.45685   19.9346   56.6267   72.4159   
400   169.838   76.8985   120.854   437.461   2.18298   19.3179   56.3518   71.6827   
405   145.086   75.7401   118.109   437.461   127   19.3788   56.0891   70.9986   
410   141.089   74.6333   115.508   436.251   0.220544   19.5799   55.8373   70.3356   
415   143.179   73.5757   113.021   356.849   0.529346   19.8144   55.5959   69.6945   
420   143.179   72.5649   110.635   349.397   0.221054   19.9913   55.3644   69.078   
425   143.179   71.5988   108.354   342.09   0.221054   20.2637   55.1425   68.4819   
430   143.179   70.6753   106.168   334.92   0.221054   20.5361   54.9298   67.9068   
435   143.179   69.7924   104.074   327.892   0.221054   20.8085   54.7259   67.3517   
440   143.179   68.9482   102.068   321   0.221054   21.0808   54.5304   66.8156   
445   143.179   68.1409   100.146   314.21   0.221054   21.3532   54.343   66.2979   
450   143.179   67.369   98.3034   307.433   0.221054   21.6256   54.1634   65.7979   
455   143.179   66.6306   96.537   300.805   0.221054   21.898   53.9912   65.3149   
460   143.179   65.9244   94.8432   294.323   0.221054   22.1703   53.8261   64.8483   
465   143.179   65.2489   93.2182   287.989   0.221054   22.4427   53.6678   64.3977   
470   143.179   64.6027   91.6597   281.802   0.221054   22.7151   53.5161   63.9622   
475   143.179   63.9844   90.1646   275.76   0.221054   22.9875   53.3706   63.5413   
480   143.179   63.3928   88.7292   269.863   0.221054   23.2599   53.2311   63.1347   
485   143.179   62.8268   87.3517   264.108   0.221054   23.5322   53.0974   62.7415   
490   143.179   62.2851   86.0292   258.492   0.221054   23.8046   52.9693   62.3615   
495   143.179   61.7667   84.7593   253.016   0.221054   24.077   52.8464   61.9941   
500   143.179   61.2705   83.5399   247.935   0.221054   24.3494   52.7287   61.6389   
505   143.179   60.7957   82.3682   243.115   0.221054   24.6217   52.6158   61.2955   
514   143.179   59.9915   80.3739   234.678   0.221054   25.112   52.4242   60.7054   

Função objetivo mínima: 630.31
Parâmetros otimizados:
Dp = 3.5634
Le = 2.77165
zd = 4.74676
eps = 0.05
Numero de iterações = 20
Numero de particulas = 100

Pico de vazao de vapor [t/h] = 127
Agua total adicionada [kg] = 409233
Vapor total gerado [kg] = 92823.5
Agua acumulada no leito [kg] = 433627
balanco [kg] = -117218
errobalanco [%] = -28.6432

Tempo: 37286 s
